Time(s),Position(V)
0.356000,-0.732067
3.378000,-0.748167
6.378000,-0.720322
9.377000,-0.695662
12.378000,-0.853564
15.377000,-0.705830
18.377000,-0.694432
21.377000,-0.685528
24.375000,-0.667586
27.375000,-0.649260
30.376000,-0.629488
33.376000,-0.606250
36.376000,-0.582895
39.374000,-0.583769
42.374000,-0.540348
45.374000,-0.526954
48.375000,-0.486956
51.375000,-0.443956
54.374000,-0.394671
57.374000,-0.357854
60.374000,-0.317836
63.373000,-0.279684
66.373000,-0.266232
69.374000,-0.194993
72.372000,-0.150909
75.372000,-0.103221
78.372000,-0.055438
81.372000,-0.005674
84.372000,0.046175
87.371000,0.100097
90.371000,0.155383
93.371000,0.203322
96.371000,0.259168
99.371000,0.313362
102.369000,0.370456
105.369000,0.428954
108.370000,0.483444
111.370000,0.542520
114.370000,0.606199
117.370000,0.672808
120.368000,0.736007
123.368000,0.786180
126.369000,0.838702
129.369000,0.891016
132.369000,0.976699
135.367000,1.014440
138.367000,1.102408
141.367000,1.168395
144.367000,1.234052
147.368000,1.300280
150.368000,1.366400
153.366000,1.431945
156.366000,1.495692
159.366000,1.563783
162.366000,1.633326
165.366000,1.698823
168.366000,1.768764
171.366000,1.836260
174.366000,1.891158
177.364000,1.967370
180.364000,2.039024
183.364000,2.112255
186.365000,2.183063
189.364000,2.252194
192.364000,2.319918
195.364000,2.380898
198.362000,2.444658
201.362000,2.506413
204.363000,2.569728
207.363000,2.631278
210.363000,2.692414
213.362000,2.750511
216.362000,2.805283
219.362000,2.863288
222.360000,2.921643
225.361000,2.976623
228.361000,3.028492
231.361000,3.086993
234.361000,3.148836
237.360000,3.213133
240.360000,3.278390
243.360000,3.344458
246.360000,3.404958
249.360000,3.461328
252.360000,3.509597
255.358000,3.559032
258.358000,3.604517
261.358000,3.647595
264.359000,3.686277
267.359000,3.728478
270.357000,3.766311
273.357000,3.805000
276.357000,3.838131
279.357000,3.887352
282.358000,3.930661
285.358000,3.973821
288.356000,4.016477
291.356000,4.057271
294.356000,4.098618
297.356000,4.135394
300.356000,4.171550
303.355000,4.199756
306.356000,4.226761
309.356000,4.249799
312.354000,4.273075
315.354000,4.281057
318.354000,4.315426
321.355000,4.335326
324.355000,4.348798
327.353000,4.349556
330.353000,4.367451
333.353000,4.373703
336.353000,4.399715
339.353000,4.416927
342.352000,4.423923
345.352000,4.414683
348.352000,4.427676
351.352000,4.438201
354.352000,4.436501
357.352000,4.443330
360.351000,4.445914
363.351000,4.449195
366.351000,4.438476
369.351000,4.429056
372.351000,4.447848
375.349000,4.425980
378.349000,4.416067
381.350000,4.402928
384.350000,4.395565
387.349000,4.384646
390.349000,4.373849
393.349000,4.360605
396.349000,4.348016
399.349000,4.335931
402.349000,4.319896
405.349000,4.305204
408.348000,4.288332
411.348000,4.270094
414.346000,4.249925
417.346000,4.229542
420.347000,4.208278
423.347000,4.183248
426.347000,4.159788
429.345000,4.128758
432.345000,4.097595
435.345000,4.067999
438.346000,4.029263
441.345000,3.987670
444.345000,3.947053
447.345000,3.909588
450.345000,3.868992
453.345000,3.833338
456.343000,3.796872
459.344000,3.764791
462.345000,3.731684
465.343000,3.697832
468.343000,3.665109
471.343000,3.630927
474.343000,3.596606
477.344000,3.562717
480.342000,3.526071
483.342000,3.488728
486.342000,3.449709
489.342000,3.409269
492.342000,3.365861
495.340000,3.318071
498.341000,3.269802
501.341000,3.220055
504.341000,3.171616
507.341000,3.122439
510.339000,3.075068
513.339000,3.029661
516.340000,2.984934
519.340000,2.944222
522.340000,2.902127
525.340000,2.861663
528.338000,2.821981
531.338000,2.783629
534.338000,2.744304
537.339000,2.703785
540.339000,2.665110
543.337000,2.627080
546.337000,2.588673
549.337000,2.552146
552.337000,2.512895
555.338000,2.474798
558.336000,2.439151
561.336000,2.399989
564.336000,2.359726
567.336000,2.324732
570.336000,2.288296
573.334000,2.250287
576.335000,2.212924
579.335000,2.176879
582.335000,2.140760
585.334000,2.109114
588.334000,2.072206
591.334000,2.037906
594.335000,2.005570
597.335000,1.971875
600.333000,1.941643
603.333000,1.909664
606.333000,1.881068
609.333000,1.853611
612.333000,1.824134
615.333000,1.802619
618.333000,1.776830
621.333000,1.749614
624.331000,1.731441
627.331000,1.708603
630.331000,1.688186
633.330000,1.666572
636.331000,1.652516
639.331000,1.632523
642.331000,1.614180
645.329000,1.600915
648.329000,1.591118
651.329000,1.571136
654.330000,1.563120
657.330000,1.551161
660.330000,1.539011
663.328000,1.530886
666.328000,1.530465
669.328000,1.519233
672.328000,1.522031
675.329000,1.508739
678.327000,1.506879
681.328000,1.527738
684.328000,1.505387
687.326000,1.521089
690.327000,1.525593
693.326000,1.510377
696.326000,1.529475
699.326000,1.530183
702.326000,1.540531
705.326000,1.552925
708.326000,1.565228
711.324000,1.571976
714.325000,1.573594
717.325000,1.595799
720.325000,1.607755
723.325000,1.615737
726.323000,1.630487
729.324000,1.649674
732.323000,1.666651
735.323000,1.683651
738.323000,1.699313
741.323000,1.701991
744.323000,1.743030
747.323000,1.764201
750.321000,1.787114
753.322000,1.809510
756.322000,1.831575
759.322000,1.852071
762.322000,1.854501
765.321000,1.904198
768.321000,1.921913
771.322000,1.966888
774.320000,1.994172
777.320000,2.025933
780.320000,2.056970
783.320000,2.085658
786.320000,2.118436
789.318000,2.148837
792.319000,2.180221
795.319000,2.213811
798.319000,2.248077
801.319000,2.281419
804.319000,2.315839
807.317000,2.348117
810.318000,2.386170
813.318000,2.419244
816.317000,2.452681
819.317000,2.484323
822.317000,2.518991
825.317000,2.551840
828.317000,2.586681
831.316000,2.622892
834.316000,2.653184
837.316000,2.687563
840.316000,2.718556
843.316000,2.752935
846.314000,2.775783
849.315000,2.815346
852.315000,2.848337
855.315000,2.881006
858.315000,2.915929
861.313000,2.946364
864.313000,2.981066
867.313000,3.014262
870.314000,3.050524
873.314000,3.064686
876.313000,3.104925
879.312000,3.147425
882.312000,3.186240
885.312000,3.223209
888.313000,3.263401
891.313000,3.303148
894.312000,3.340926
897.312000,3.375808
900.310000,3.410860
903.310000,3.440564
906.310000,3.468994
909.311000,3.501126
912.310000,3.525371
915.310000,3.540910
918.310000,3.573799
921.310000,3.598585
924.309000,3.619009
927.310000,3.639127
930.310000,3.663069
933.308000,3.683007
936.309000,3.700609
939.309000,3.721180
942.307000,3.740387
945.307000,3.760746
948.308000,3.764054
951.308000,3.780813
954.308000,3.802253
957.306000,3.817010
960.306000,3.833508
963.306000,3.850808
966.307000,3.867758
969.307000,3.882052
972.307000,3.894702
975.305000,3.913049
978.305000,3.921061
981.305000,3.933078
984.305000,3.944001
987.306000,3.953835
990.304000,3.964992
993.304000,3.972624
996.304000,3.986463
999.304000,3.984094
1002.304000,3.999789
1005.303000,4.000727
1008.303000,3.987670
1011.303000,3.985131
1014.303000,4.006710
1017.303000,3.986273
1020.301000,3.979528
1023.301000,3.998157
1026.302000,3.999143
1029.302000,3.972573
1032.302000,3.965846
1035.302000,3.954631
1038.300000,3.950755
1041.300000,3.940914
1044.301000,3.934071
1047.301000,3.927340
1050.301000,3.915170
1053.299000,3.903435
1056.299000,3.893094
1059.299000,3.881321
1062.299000,3.866085
1065.300000,3.852661
1068.300000,3.842044
1071.298000,3.823728
1074.298000,3.811571
1077.297000,3.796923
1080.297000,3.782887
1083.298000,3.769071
1086.298000,3.755467
1089.298000,3.739445
1092.298000,3.723029
1095.296000,3.704590
1098.296000,3.690649
1101.296000,3.669525
1104.297000,3.650892
1107.297000,3.634432
1110.295000,3.615480
1113.295000,3.597089
1116.295000,3.577022
1119.295000,3.560548
1122.296000,3.538982
1125.294000,3.518990
1128.294000,3.495513
1131.294000,3.472676
1134.294000,3.449593
1137.294000,3.427667
1140.292000,3.403802
1143.293000,3.377749
1146.293000,3.351029
1149.293000,3.322052
1152.293000,3.295424
1155.293000,3.266485
1158.291000,3.235570
1161.292000,3.205498
1164.292000,3.176681
1167.292000,3.145766
1170.292000,3.115555
1173.290000,3.085966
1176.290000,3.058478
1179.290000,3.033006
1182.291000,3.005712
1185.291000,2.981246
1188.289000,2.953765
1191.290000,2.928911
1194.290000,2.905560
1197.288000,2.881465
1200.290000,2.857951
1203.290000,2.833611
1206.288000,2.810671
1209.288000,2.788381
1212.288000,2.765662
1215.288000,2.743080
1218.288000,2.719793
1221.287000,2.697911
1224.287000,2.674145
1227.287000,2.654996
1230.287000,2.632081
1233.287000,2.614458
1236.285000,2.591828
1239.286000,2.571200
1242.286000,2.551483
1245.286000,2.531946
1248.286000,2.511957
1251.286000,2.492764
1254.284000,2.472778
1257.284000,2.457641
1260.285000,2.439515
1263.285000,2.421450
1266.285000,2.401448
1269.283000,2.386361
1272.283000,2.370672
1275.283000,2.352686
1278.284000,2.336861
1281.284000,2.323777
1284.282000,2.309825
1287.282000,2.300616
1290.282000,2.282038
1293.282000,2.268994
1296.282000,2.257385
1299.282000,2.243563
1302.281000,2.231107
1305.281000,2.221235
1308.281000,2.214749
1311.281000,2.203296
1314.281000,2.196491
1317.280000,2.185901
1320.280000,2.178147
1323.280000,2.175676
1326.279000,2.172266
1329.279000,2.161099
1332.279000,2.161136
1335.279000,2.155191
1338.280000,2.155377
1341.278000,2.158359
1344.278000,2.170787
1347.278000,2.167843
1350.278000,2.149680
1353.278000,2.157285
1356.277000,2.175445
1359.277000,2.177865
1362.277000,2.175625
1365.277000,2.178001
1368.277000,2.170610
1371.277000,2.197762
1374.276000,2.198224
1377.277000,2.190069
1380.275000,2.216146
1383.275000,2.220698
1386.275000,2.221732
1389.275000,2.235605
1392.275000,2.245450
1395.276000,2.256134
1398.274000,2.262919
1401.274000,2.279873
1404.274000,2.290700
1407.274000,2.302741
1410.274000,2.312320
1413.273000,2.310043
1416.274000,2.342059
1419.274000,2.351180
1422.272000,2.363992
1425.272000,2.384025
1428.272000,2.393367
1431.272000,2.408569
1434.273000,2.425706
1437.272000,2.440001
1440.272000,2.451620
1443.272000,2.467424
1446.270000,2.485037
1449.270000,2.504852
1452.270000,2.519286
1455.271000,2.534234
1458.271000,2.552064
1461.269000,2.570656
1464.269000,2.584814
1467.269000,2.606591
1470.269000,2.623439
1473.270000,2.641789
1476.268000,2.658287
1479.268000,2.675396
1482.268000,2.696211
1485.268000,2.716465
1488.268000,2.735149
1491.266000,2.752615
1494.267000,2.769694
1497.267000,2.788337
1500.267000,2.805878
1503.267000,2.829045
1506.267000,2.844713
1509.265000,2.865100
1512.266000,2.856724
1515.266000,2.887506
1518.266000,2.910432
1521.266000,2.929724
1524.264000,2.947697
1527.264000,2.966033
1530.264000,2.986451
1533.265000,2.998634
1536.265000,3.019391
1539.265000,3.037708
1542.263000,3.051180
1545.263000,3.074707
1548.263000,3.093931
1551.264000,3.112435
1554.264000,3.128242
1557.262000,3.145372
1560.262000,3.164545
1563.262000,3.179900
1566.262000,3.202078
1569.262000,3.224097
1572.261000,3.241845
1575.261000,3.261083
1578.261000,3.278036
1581.261000,3.296896
1584.261000,3.310977
1587.259000,3.323585
1590.260000,3.339825
1593.260000,3.355200
1596.260000,3.368564
1599.260000,3.382631
1602.260000,3.396324
1605.258000,3.405261
1608.258000,3.415262
1611.259000,3.427755
1614.259000,3.440717
1617.259000,3.443070
1620.257000,3.453081
1623.257000,3.455393
1626.257000,3.464112
1629.258000,3.470208
1632.258000,3.472655
1635.256000,3.482881
1638.256000,3.481898
1641.256000,3.497413
1644.256000,3.493616
1647.256000,3.507612
1650.257000,3.514486
1653.255000,3.509091
1656.255000,3.522325
1659.254000,3.514944
1662.254000,3.521495
1665.254000,3.522110
1668.255000,3.521699
1671.255000,3.521740
1674.255000,3.525235
1677.253000,3.520897
1680.253000,3.516909
1683.253000,3.516746
1686.253000,3.525581
1689.254000,3.514465
1692.252000,3.518225
1695.252000,3.508455
1698.252000,3.497798
1701.252000,3.493446
1704.252000,3.489112
1707.251000,3.484376
1710.251000,3.474562
1713.251000,3.468545
1716.251000,3.467206
1719.251000,3.454573
1722.251000,3.446993
1725.249000,3.441105
1728.250000,3.433456
1731.250000,3.430709
1734.250000,3.416850
1737.250000,3.408456
1740.248000,3.396823
1743.248000,3.383871
1746.249000,3.374904
1749.249000,3.366585
1752.249000,3.355139
1755.247000,3.345512
1758.247000,3.331982
1761.247000,3.319309
1764.247000,3.305578
1767.248000,3.291641
1770.248000,3.277305
1773.246000,3.267165
1776.246000,3.249565
1779.245000,3.237219
1782.245000,3.221173
1785.246000,3.207079
1788.246000,3.193121
1791.246000,3.178612
1794.246000,3.162407
1797.244000,3.143067
1800.244000,3.129473
1803.244000,3.115413
1806.244000,3.099109
1809.244000,3.085270
1812.244000,3.069299
1815.244000,3.054467
1818.242000,3.039316
1821.242000,3.028216
1824.243000,3.011654
1827.243000,2.995106
1830.243000,2.982307
1833.243000,2.967356
1836.241000,2.955012
1839.241000,2.941717
1842.241000,2.925842
1845.242000,2.918121
1848.242000,2.901359
1851.240000,2.887499
1854.240000,2.875258
1857.240000,2.863937
1860.240000,2.852284
1863.240000,2.836436
1866.240000,2.825177
1869.240000,2.812402
1872.240000,2.802920
1875.238000,2.787871
1878.239000,2.778893
1881.239000,2.766169
1884.238000,2.759268
1887.238000,2.744497
1890.238000,2.730679
1893.238000,2.719243
1896.238000,2.708194
1899.237000,2.701916
1902.237000,2.688886
1905.238000,2.679955
1908.236000,2.667833
1911.237000,2.657770
1914.235000,2.647011
1917.235000,2.638533
1920.235000,2.630027
1923.236000,2.624071
1926.236000,2.613431
1929.236000,2.607540
1932.234000,2.596257
1935.234000,2.590594
1938.234000,2.589645
1941.234000,2.573698
1944.235000,2.576204
1947.233000,2.563483
1950.233000,2.557415
1953.233000,2.551595
1956.233000,2.553682
1959.233000,2.536450
1962.232000,2.532034
1965.232000,2.530719
1968.233000,2.522390
1971.231000,2.521598
1974.231000,2.520442
1977.231000,2.511927
1980.231000,2.509775
1983.232000,2.506759
1986.232000,2.504744
1989.230000,2.524484
1992.230000,2.507388
1995.230000,2.523526
1998.230000,2.504478
2001.231000,2.512946
2004.230000,2.510366
2007.230000,2.502061
2010.230000,2.515047
2013.228000,2.511563
2016.228000,2.502479
2019.228000,2.522111
2022.229000,2.506834
2025.229000,2.528608
2028.227000,2.525079
2031.227000,2.532721
2034.227000,2.521183
2037.227000,2.543052
2040.228000,2.542926
2043.226000,2.546200
2046.226000,2.541679
2049.226000,2.538997
2052.226000,2.566036
2055.226000,2.554661
2058.224000,2.566369
2061.225000,2.570170
2064.225000,2.571441
2067.225000,2.592263
2070.225000,2.593255
2073.225000,2.589315
2076.223000,2.602182
2079.224000,2.617201
2082.224000,2.619169
2085.224000,2.631037
2088.224000,2.635568
2091.222000,2.644336
2094.222000,2.650699
2097.222000,2.647079
2100.222000,2.668322
2103.222000,2.661720
2106.222000,2.685778
2109.222000,2.699645
2112.222000,2.698686
2115.220000,2.709619
2118.221000,2.725263
2121.221000,2.730706
2124.221000,2.747326
2127.221000,2.754471
2130.219000,2.767202
2133.219000,2.769952
2136.219000,2.787324
2139.220000,2.796247
2142.220000,2.804576
2145.220000,2.818286
2148.218000,2.830310
2151.218000,2.834423
2154.217000,2.843721
2157.218000,2.835372
2160.218000,2.858519
2163.218000,2.869665
2166.218000,2.876444
2169.218000,2.887098
2172.216000,2.890858
2175.216000,2.911312
2178.217000,2.920185
2181.217000,2.933008
2184.217000,2.923618
2187.215000,2.943968
2190.215000,2.963259
2193.215000,2.972754
2196.216000,2.984917
2199.216000,2.992478
2202.215000,3.003682
2205.215000,3.008309
2208.215000,3.017865
2211.213000,3.031113
2214.213000,3.043439
2217.214000,3.050367
2220.214000,3.063676
2223.214000,3.067273
2226.212000,3.084307
2229.212000,3.094757
2232.212000,3.103905
2235.213000,3.101849
2238.213000,3.119590
2241.213000,3.127311
2244.211000,3.137040
2247.211000,3.142938
2250.211000,3.152684
2253.211000,3.163277
2256.212000,3.158157
2259.210000,3.174216
2262.210000,3.189953
2265.210000,3.188171
2268.210000,3.204822
2271.210000,3.199440
2274.209000,3.214446
2277.209000,3.227738
2280.209000,3.235927
2283.209000,3.237698
2286.209000,3.243409
2289.209000,3.252472
2292.207000,3.256188
2295.208000,3.260495
2298.208000,3.262443
2301.207000,3.271257
2304.207000,3.270414
2307.207000,3.276724
2310.207000,3.269296
2313.208000,3.277774
2316.206000,3.281840
2319.206000,3.268609
2322.205000,3.269938
2325.205000,3.290546
2328.205000,3.291794
2331.205000,3.293072
2334.206000,3.273202
2337.206000,3.272546
2340.204000,3.274888
2343.204000,3.277071
2346.204000,3.270666
2349.204000,3.262375
2352.205000,3.256596
2355.203000,3.257847
2358.203000,3.253444
2361.203000,3.246982
2364.203000,3.249270
2367.203000,3.253322
2370.201000,3.238453
2373.202000,3.236202
2376.202000,3.230926
2379.202000,3.225191
2382.202000,3.217604
2385.200000,3.213983
2388.200000,3.208367
2391.201000,3.201643
2394.201000,3.193522
2397.201000,3.188637
2400.201000,3.180318
2403.199000,3.174281
2406.199000,3.164525
2409.199000,3.162835
2412.200000,3.154183
2415.199000,3.143210
2418.199000,3.134548
2421.199000,3.127566
2424.198000,3.117649
2427.198000,3.113873
2430.199000,3.105075
2433.198000,3.096763
2436.198000,3.087503
2439.198000,3.079990
2442.196000,3.073123
2445.196000,3.062670
2448.196000,3.055487
2451.197000,3.044915
2454.197000,3.035393
2457.197000,3.032031
2460.195000,3.021557
2463.195000,3.014163
2466.195000,3.003050
2469.196000,2.992151
2472.196000,2.990136
2475.194000,2.980590
2478.194000,2.967822
2481.194000,2.961029
2484.194000,2.951222
2487.194000,2.944651
2490.193000,2.940796
2493.194000,2.928578
2496.194000,2.918495
2499.192000,2.910292
2502.192000,2.904833
2505.192000,2.896300
2508.192000,2.886646
2511.192000,2.881047
2514.192000,2.869893
2517.192000,2.869540
2520.192000,2.857761
2523.190000,2.847178
2526.190000,2.841623
2529.191000,2.831085
2532.191000,2.826503
2535.191000,2.817691
2538.189000,2.810301
2541.189000,2.806238
2544.189000,2.798780
2547.190000,2.789537
2550.190000,2.787161
2553.190000,2.779971
2556.188000,2.774997
2559.188000,2.766441
2562.188000,2.757120
2565.188000,2.753666
2568.189000,2.769626
2571.187000,2.743552
2574.187000,2.734795
2577.187000,2.730196
2580.187000,2.725566
2583.187000,2.721864
2586.186000,2.718746
2589.186000,2.729519
2592.186000,2.704567
2595.186000,2.704754
2598.186000,2.704693
2601.184000,2.694066
2604.184000,2.688189
2607.185000,2.681601
2610.185000,2.682240
2613.185000,2.675240
2616.185000,2.671069
2619.183000,2.673401
2622.183000,2.669260
2625.184000,2.669641
2628.184000,2.684759
2631.184000,2.657556
2634.182000,2.658539
2637.182000,2.663226
2640.182000,2.674421
2643.182000,2.652807
2646.183000,2.651396
2649.181000,2.660109
2652.181000,2.662992
2655.181000,2.661129
2658.181000,2.645903
2661.181000,2.652613
2664.182000,2.641970
2667.180000,2.650917
2670.180000,2.663318
2673.180000,2.644784
2676.180000,2.660949
2679.180000,2.662985
2682.178000,2.648823
2685.179000,2.672935
2688.179000,2.650006
2691.179000,2.666310
2694.179000,2.656523
2697.177000,2.666381
2700.177000,2.656468
2703.178000,2.671796
2706.178000,2.663662
2709.178000,2.679065
2712.178000,2.665212
2715.176000,2.680621
2718.176000,2.669158
2721.176000,2.689582
2724.177000,2.670409
2727.177000,2.701005
2730.175000,2.681305
2733.175000,2.707518
2736.176000,2.691744
2739.174000,2.706056
2742.176000,2.701739
2745.174000,2.716955
2748.174000,2.709935
2751.174000,2.721187
2754.174000,2.726361
2757.174000,2.728258
2760.174000,2.735764
2763.173000,2.740500
2766.173000,2.746024
2769.173000,2.754482
2772.173000,2.756212
2775.173000,2.770986
2778.171000,2.767124
2781.172000,2.777696
2784.173000,2.783034
2787.171000,2.782446
2790.171000,2.790162
2793.171000,2.797247
2796.171000,2.803658
2799.171000,2.804080
2802.170000,2.812840
2805.170000,2.816032
2808.170000,2.828110
2811.170000,2.826105
2814.170000,2.835300
2817.169000,2.842429
2820.170000,2.842256
2823.170000,2.846719
2826.168000,2.849558
2829.168000,2.864570
2832.168000,2.869054
2835.167000,2.854531
2838.167000,2.848572
2841.168000,2.869193
2844.168000,2.875900
2847.168000,2.881428
2850.167000,2.861979
2853.167000,2.877977
2856.167000,2.891534
2859.166000,2.901437
2862.166000,2.876934
2865.166000,2.905387
2868.166000,2.898734
2871.166000,2.891317
2874.164000,2.917870
2877.164000,2.918506
2880.165000,2.927558
2883.165000,2.926974
2886.165000,2.913508
2889.163000,2.925169
2892.163000,2.942808
2895.163000,2.947071
2898.164000,2.926800
2901.164000,2.950807
2904.164000,2.957895
2907.162000,2.937294
2910.162000,2.953279
2913.162000,2.963661
2916.162000,2.948088
2919.163000,2.962325
2922.161000,2.966054
2925.161000,2.953836
2928.161000,2.980281
2931.161000,2.964466
2934.161000,2.970395
2937.160000,2.984183
2940.160000,2.970633
2943.160000,2.986984
2946.160000,2.972968
2949.160000,2.996564
2952.158000,2.975297
2955.158000,2.994096
2958.159000,2.986457
2961.159000,2.990091
2964.159000,3.011073
2967.159000,3.006909
2970.157000,3.012035
2973.157000,2.999556
2976.158000,2.992689
2979.157000,3.010485
2982.157000,2.994402
2985.157000,2.994082
2988.157000,3.015458
2991.157000,3.000133
2994.155000,2.992719
2997.156000,3.007667
3000.156000,3.018355
3003.156000,2.990700
3006.156000,3.011947
3009.154000,3.001833
3012.154000,2.993501
3015.155000,2.995055
3018.155000,2.994769
3021.155000,2.988623
3024.155000,3.009703
3027.153000,2.992077
3030.153000,2.991176
3033.153000,2.989853
3036.154000,2.982891
3039.154000,2.996795
3042.152000,2.976048
3045.152000,2.980821
3048.152000,2.996292
3051.152000,2.975576
3054.153000,2.971428
3057.151000,2.975936
3060.151000,2.966312
3063.151000,2.973434
3066.151000,2.975209
3069.151000,2.966254
3072.149000,2.961699
3075.150000,2.951188
3078.151000,2.950865
3081.149000,2.950671
3084.149000,2.950719
3087.149000,2.949128
3090.149000,2.941608
3093.150000,2.941612
3096.148000,2.939524
3099.148000,2.940395
3102.148000,2.933096
3105.148000,2.932131
3108.148000,2.929200
3111.147000,2.931502
3114.148000,2.931957
3117.148000,2.917370
3120.146000,2.916174
3123.147000,2.913090
3126.147000,2.909422
3129.145000,2.901145
3132.145000,2.902933
3135.146000,2.902535
3138.146000,2.890616
3141.146000,2.890542
3144.146000,2.892724
3147.144000,2.881547
3150.144000,2.890321
3153.145000,2.884977
3156.144000,2.873181
3159.144000,2.892014
3162.144000,2.894917
3165.144000,2.868149
3168.142000,2.868724
3171.142000,2.858991
3174.143000,2.861429
3177.142000,2.877753
3180.142000,2.863125
3183.142000,2.844724
3186.142000,2.841967
3189.142000,2.838601
3192.141000,2.859386
3195.141000,2.850663
3198.141000,2.829372
3201.141000,2.836028
3204.141000,2.840124
3207.141000,2.818735
3210.139000,2.817644
3213.140000,2.812357
3216.140000,2.821488
3219.139000,2.822066
3222.139000,2.811885
3225.139000,2.817521
3228.139000,2.803682
3231.140000,2.805521
3234.138000,2.798345
3237.138000,2.796088
3240.138000,2.793766
3243.138000,2.791515
3246.138000,2.790057
3249.136000,2.796761
3252.137000,2.788860
3255.137000,2.788864
3258.137000,2.783516
3261.137000,2.791447
3264.135000,2.796699
3267.135000,2.785012
3270.136000,2.798352
3273.136000,2.781834
3276.136000,2.787558
3279.134000,2.784944
3282.134000,2.772383
3285.134000,2.778825
3288.134000,2.794357
3291.135000,2.791624
3294.135000,2.772743
3297.133000,2.769215
3300.133000,2.781089
3303.133000,2.780491
3306.133000,2.786702
3309.134000,2.774093
3312.132000,2.775718
3315.132000,2.788646
3318.133000,2.771329
3321.131000,2.773661
3324.131000,2.782174
3327.132000,2.786209
3330.131000,2.777295
3333.131000,2.797243
3336.131000,2.794075
3339.131000,2.796788
3342.131000,2.783659
3345.129000,2.781956
3348.130000,2.790591
3351.130000,2.776959
3354.130000,2.795445
3357.130000,2.783224
3360.128000,2.801258
3363.128000,2.793181
3366.128000,2.785216
3369.129000,2.785923
3372.129000,2.801873
3375.129000,2.787456
3378.127000,2.796241
3381.127000,2.805283
3384.127000,2.792691
3387.128000,2.810834
3390.128000,2.803604
3393.126000,2.805419
3396.126000,2.819999
3399.126000,2.802115
3402.126000,2.818208
3405.126000,2.803468
3408.125000,2.803638
3411.125000,2.822641
3414.125000,2.827645
3417.125000,2.828087
3420.125000,2.823321
3423.123000,2.812446
3426.124000,2.837292
3429.124000,2.841372
3432.124000,2.827332
3435.124000,2.821125
3438.124000,2.841610
3441.122000,2.841617
3444.122000,2.850839
3447.123000,2.846706
3450.122000,2.830782
3453.122000,2.855537
3456.122000,2.859620
3459.122000,2.836579
3462.122000,2.858240
3465.121000,2.847899
3468.121000,2.858301
3471.121000,2.872273
3474.121000,2.870590
3477.120000,2.852131
3480.120000,2.870770
3483.120000,2.866728
3486.121000,2.874717
3489.119000,2.882046
3492.119000,2.886302
3495.119000,2.886853
3498.119000,2.869445
3501.119000,2.892347
3504.118000,2.876740
3507.118000,2.890021
3510.118000,2.898425
3513.118000,2.873840
3516.118000,2.902079
3519.117000,2.885102
3522.117000,2.884528
3525.118000,2.902776
3528.116000,2.909636
3531.116000,2.908708
3534.116000,2.913621
3537.116000,2.892653
3540.116000,2.891211
3543.115000,2.904796
3546.115000,2.924621
3549.115000,2.906264
3552.115000,2.908909
3555.115000,2.926797
3558.115000,2.906159
3561.113000,2.915511
3564.114000,2.925995
3567.114000,2.906335
3570.114000,2.913063
3573.114000,2.930023
3576.112000,2.911856
3579.112000,2.931614
3582.113000,2.932709
3585.113000,2.920419
3588.113000,2.913121
3591.113000,2.928619
3594.111000,2.932280
3597.112000,2.924897
3600.110000,2.918723
3603.111000,2.940350
3606.111000,2.931196
3609.111000,2.913695
3612.111000,2.920290
3615.109000,2.926046
3618.109000,2.931417
3621.110000,2.910510
3624.110000,2.909946
3627.110000,2.912336
3630.110000,2.920219
3633.108000,2.921011
3636.108000,2.935425
3639.108000,2.934575
3642.109000,2.932195
3645.109000,2.920596
3648.107000,2.901331
3651.107000,2.900978
3654.108000,2.903871
3657.106000,2.917527
3660.107000,2.902137
3663.107000,2.914861
3666.106000,2.891167
3669.106000,2.893560
3672.106000,2.901236
3675.106000,2.915113
3678.106000,2.918628
3681.105000,2.897844
3684.105000,2.887180
3687.104000,2.905639
3690.104000,2.881764
3693.104000,2.893428
3696.104000,2.904058
3699.105000,2.878973
3702.105000,2.872358
3705.103000,2.881292
3708.104000,2.888400
3711.104000,2.869139
3714.102000,2.867646
3717.102000,2.868901
3720.103000,2.867214
3723.103000,2.881778
3726.103000,2.858988
3729.101000,2.864090
3732.101000,2.864607
3735.101000,2.856853
3738.102000,2.870964
3741.102000,2.870794
3744.100000,2.847270
3747.100000,2.850608
3750.100000,2.863818
3753.100000,2.848568
3756.100000,2.838353
3759.099000,2.834685
3762.099000,2.837469
3765.099000,2.833298
3768.099000,2.830497
3771.099000,2.849626
3774.099000,2.828403
3777.098000,2.828107
3780.098000,2.821465
3783.098000,2.818966
3786.098000,2.828219
3789.098000,2.833720
3792.096000,2.812568
3795.096000,2.812677
3798.097000,2.814574
3801.097000,2.817674
3804.097000,2.809264
3807.095000,2.829045
3810.095000,2.821669
3813.095000,2.805783
3816.096000,2.827900
3819.096000,2.807622
3822.096000,2.803152
3825.094000,2.805110
3828.094000,2.796190
3831.094000,2.823293
3834.094000,2.794789
3837.095000,2.812068
3840.093000,2.791814
3843.093000,2.807479
3846.093000,2.799195
3849.093000,2.787548
3852.093000,2.791417
3855.093000,2.794775
3858.093000,2.786868
3861.093000,2.803104
3864.091000,2.791828
3867.091000,2.794983
3870.091000,2.808751
3873.091000,2.787518
3876.092000,2.790461
3879.090000,2.803811
3882.090000,2.788752
3885.090000,2.805807
3888.090000,2.792039
3891.090000,2.792882
3894.091000,2.799783
3897.089000,2.784455
3900.089000,2.793762
3903.089000,2.808754
3906.089000,2.793140
3909.089000,2.791777
3912.087000,2.807880
3915.088000,2.788140
3918.088000,2.792457
3921.088000,2.810760
3924.088000,2.786389
3927.086000,2.805127
3930.086000,2.790893
3933.087000,2.800099
3936.087000,2.803903
3939.087000,2.787589
3942.087000,2.801965
3945.085000,2.817698
3948.085000,2.799354
3951.085000,2.797386
3954.086000,2.814795
3957.086000,2.795370
3960.084000,2.813530
3963.084000,2.796071
3966.084000,2.797145
3969.084000,2.807377
3972.085000,2.820992
3975.083000,2.801785
3978.083000,2.828362
3981.083000,2.805518
3984.083000,2.805093
3987.083000,2.825068
3990.081000,2.805830
3993.082000,2.819506
3996.082000,2.805433
3999.082000,2.830266
4002.082000,2.807037
4005.082000,2.826047
4008.080000,2.814370
4011.081000,2.819340
4014.080000,2.826231
4017.080000,2.815573
4020.080000,2.826380
4023.080000,2.832557
4026.080000,2.810583
4029.080000,2.825394
4032.079000,2.842021
4035.079000,2.836137
4038.079000,2.823882
4041.079000,2.833352
4044.079000,2.831082
4047.077000,2.821386
4050.078000,2.839359
4053.078000,2.827730
4056.078000,2.835321
4059.078000,2.849286
4062.076000,2.846712
4065.076000,2.849401
4068.076000,2.831908
4071.077000,2.850139
4074.077000,2.833145
4077.077000,2.856448
4080.075000,2.838509
4083.075000,2.858485
4086.075000,2.835640
4089.076000,2.859052
4092.076000,2.840967
4095.074000,2.856136
4098.074000,2.864957
4101.074000,2.848653
4104.074000,2.865790
4107.074000,2.870464
4110.073000,2.870855
4113.073000,2.851441
4116.073000,2.877960
4119.073000,2.879456
4122.073000,2.857978
4125.073000,2.875319
4128.072000,2.868122
4131.072000,2.877321
4134.072000,2.870791
4137.072000,2.874486
4140.072000,2.880880
4143.070000,2.867680
4146.070000,2.887404
4149.071000,2.876509
4152.071000,2.880833
4155.071000,2.893550
4158.071000,2.876621
4161.069000,2.871790
4164.069000,2.888733
4167.070000,2.897082
4170.070000,2.878895
4173.070000,2.882298
4176.068000,2.899849
4179.068000,2.883070
4182.068000,2.901569
4185.067000,2.889151
4188.068000,2.889178
4191.068000,2.902229
4194.068000,2.894842
4197.068000,2.886020
4200.066000,2.898911
4203.066000,2.917493
4206.067000,2.909881
4209.067000,2.908511
4212.067000,2.910622
4215.065000,2.917401
4218.065000,2.892615
4221.065000,2.914280
4224.065000,2.894906
4227.065000,2.909116
4230.065000,2.910228
4233.065000,2.890083
4236.065000,2.913423
4239.063000,2.904687
4242.063000,2.897402
4245.064000,2.905316
4248.064000,2.905258
4251.064000,2.914902
4254.062000,2.902504
4257.062000,2.889624
4260.062000,2.901981
4263.062000,2.908093
4266.063000,2.918563
4269.063000,2.912682
4272.061000,2.889185
4275.061000,2.887122
4278.061000,2.892194
4281.061000,2.909106
4284.062000,2.913264
4287.060000,2.900852
4290.060000,2.882539
4293.060000,2.891150
4296.060000,2.892768
4299.060000,2.887268
4302.058000,2.898887
4305.059000,2.879684
4308.059000,2.880285
4311.059000,2.901933
4314.058000,2.882672
4317.058000,2.872569
4320.058000,2.876396
4323.059000,2.884616
4326.057000,2.878280
4329.057000,2.873758
4332.057000,2.897174
4335.057000,2.882573
4338.057000,2.876165
4341.057000,2.886231
4344.056000,2.867133
4347.056000,2.869142
4350.056000,2.865780
4353.056000,2.867894
4356.056000,2.883206
4359.054000,2.856408
4362.055000,2.868163
4365.055000,2.873826
4368.055000,2.853154
4371.055000,2.855065
4374.053000,2.848830
4377.053000,2.851638
4380.053000,2.867184
4383.054000,2.845125
4386.054000,2.863193
4389.054000,2.849289
4392.052000,2.838734
4395.052000,2.837534
4398.052000,2.836796
4401.052000,2.839186
4404.053000,2.835270
4407.051000,2.829695
4410.051000,2.831401
4413.051000,2.851210
4416.051000,2.833084
4419.051000,2.839777
4422.050000,2.858260
4425.050000,2.843048
4428.050000,2.825976
4431.050000,2.824983
4434.050000,2.844822
4437.048000,2.848538
4440.048000,2.837680
4443.049000,2.822430
4446.049000,2.834403
4449.049000,2.844071
4452.049000,2.818116
4455.047000,2.833444
4458.047000,2.828852
4461.048000,2.819377
4464.048000,2.832288
4467.048000,2.838115
4470.046000,2.817899
4473.046000,2.834365
4476.046000,2.826893
4479.046000,2.824466
4482.047000,2.828168
4485.045000,2.836058
4488.045000,2.815407
4491.045000,2.818208
4494.045000,2.818514
4497.045000,2.825632
4500.046000,2.840015
4503.044000,2.819748
4506.044000,2.817066
4509.044000,2.817739
4512.044000,2.821040
4515.044000,2.833131
4518.042000,2.840097
4521.043000,2.819054
4524.043000,2.834535
4527.043000,2.830405
4530.043000,2.820071
4533.041000,2.827726
4536.041000,2.841263
4539.042000,2.820367
4542.041000,2.838965
4545.041000,2.819245
4548.041000,2.828610
4551.041000,2.833448
4554.040000,2.823086
4557.040000,2.840345
4560.040000,2.819279
4563.040000,2.829205
4566.040000,2.837935
4569.040000,2.823178
4572.040000,2.839964
4575.038000,2.825921
4578.039000,2.833373
4581.039000,2.828488
4584.039000,2.843374
4587.039000,2.824069
4590.037000,2.834913
4593.037000,2.847967
4596.037000,2.839873
4599.038000,2.846814
4602.038000,2.848011
4605.038000,2.830283
4608.036000,2.825184
4611.036000,2.828345
4614.036000,2.834923
4617.037000,2.837738
4620.037000,2.823008
4623.035000,2.828076
4626.035000,2.828297
4629.035000,2.829059
4632.035000,2.829086
4635.035000,2.840729
4638.034000,2.825948
4641.034000,2.829508
4644.034000,2.842830
4647.034000,2.825510
4650.034000,2.826819
4653.032000,2.835260
4656.033000,2.839675
4659.033000,2.820564
4662.033000,2.834682
4665.033000,2.839505
4668.033000,2.819710
4671.031000,2.836708
4674.032000,2.834216
4677.032000,2.821584
4680.032000,2.824487
4683.032000,2.849779
4686.030000,2.826611
4689.030000,2.837500
4692.030000,2.841600
4695.031000,2.824089
4698.031000,2.844530
4701.029000,2.822175
4704.029000,2.829392
4707.029000,2.848725
4710.029000,2.848643
4713.029000,2.845200
4716.030000,2.838550
4719.028000,2.833291
4722.028000,2.821383
4725.028000,2.828025
4728.028000,2.822410
4731.028000,2.817610
4734.027000,2.825000
4737.027000,2.845550
4740.027000,2.826822
4743.027000,2.822784
4746.027000,2.841195
4749.025000,2.820237
4752.025000,2.840403
4755.026000,2.845366
4758.026000,2.842987
4761.026000,2.845594
4764.026000,2.847572
4767.024000,2.821883
4770.024000,2.819007
4773.025000,2.820649
4776.025000,2.826044
4779.025000,2.826839
4782.023000,2.817307
4785.023000,2.815832
4788.023000,2.831187
4791.023000,2.844074
4794.023000,2.828777
4797.022000,2.822804
4800.022000,2.830582
4803.022000,2.816304
4806.022000,2.833641
4809.022000,2.823188
4812.023000,2.824997
4815.021000,2.834804
4818.021000,2.808404
4821.021000,2.818075
4824.021000,2.833808
4827.021000,2.818929
4830.019000,2.826530
4833.020000,2.833835
4836.020000,2.812453
4839.020000,2.823130
4842.020000,2.833924
4845.018000,2.812572
4848.018000,2.831853
4851.019000,2.839971
4854.019000,2.838951
4857.019000,2.809308
4860.017000,2.817463
4863.017000,2.824878
4866.017000,2.836521
4869.017000,2.830317
4872.018000,2.809964
4875.018000,2.821893
4878.016000,2.825547
4881.016000,2.821448
4884.016000,2.838588
4887.016000,2.828593
4890.017000,2.823542
4893.015000,2.834746
4896.015000,2.809828
4899.015000,2.812657
4902.015000,2.836266
4905.015000,2.820316
4908.015000,2.811283
4911.014000,2.834464
4914.014000,2.814798
4917.014000,2.833339
4920.014000,2.829800
4923.014000,2.821648
4926.012000,2.837381
4929.013000,2.814540
4932.013000,2.836402
4935.013000,2.812096
4938.013000,2.833420
4941.011000,2.821033
4944.011000,2.814543
4947.011000,2.837993
4950.012000,2.843068
4953.012000,2.814305
4956.011000,2.821845
4959.011000,2.837670
4962.010000,2.821308
4965.010000,2.826061
4968.011000,2.843265
4971.011000,2.819068
4974.009000,2.827016
4977.009000,2.838224
4980.009000,2.824283
4983.009000,2.820951
4986.009000,2.828359
4989.008000,2.828335
4992.008000,2.828304
4995.008000,2.830572
4998.008000,2.845234
5001.008000,2.815152
5004.006000,2.831000
5007.007000,2.846505
5010.007000,2.844465
5013.007000,2.842823
5016.007000,2.834461
5019.007000,2.825085
5022.005000,2.819343
5025.005000,2.836742
5028.006000,2.812765
5031.006000,2.834722
5034.005000,2.815325
5037.005000,2.819153
5040.005000,2.839692
5043.004000,2.816104
5046.005000,2.826312
5049.004000,2.839448
5052.004000,2.839308
5055.004000,2.837568
5058.004000,2.829392
5061.002000,2.810138
5064.002000,2.814550
5067.003000,2.813802
5070.003000,2.827774
5073.003000,2.810743
5076.003000,2.820625
5079.001000,2.826825
5082.001000,2.827097
5085.002000,2.813870
5088.002000,2.815883
5091.002000,2.811446
5094.000000,2.835049
5097.000000,2.829491
5100.000000,2.828342
5103.000000,2.828178
5106.000000,2.816138
5109.000000,2.817375
5112.000000,2.836058
5115.000000,2.829093
5117.998000,2.809107
5120.998000,2.818837
5123.999000,2.832241
5126.999000,2.813027
5129.999000,2.833077
5132.997000,2.816107
5135.997000,2.812483
5138.997000,2.823049
5141.997000,2.830806
5144.998000,2.810107
5147.998000,2.826139
5150.996000,2.820778
5153.996000,2.826567
5156.996000,2.817844
5159.996000,2.815570
5162.997000,2.835875
5165.995000,2.823865
5168.995000,2.825034
5171.995000,2.831316
5174.995000,2.817718
5177.995000,2.834090
5180.993000,2.812497
5183.994000,2.827138
5186.994000,2.840607
5189.994000,2.819112
5192.994000,2.838316
5195.992000,2.822172
5198.992000,2.832135
5201.993000,2.834933
5204.993000,2.820686
5207.993000,2.845801
5210.993000,2.822974
5213.991000,2.838584
5216.991000,2.825381
5219.991000,2.823433
5222.992000,2.843847
5225.992000,2.826312
5228.990000,2.847256
5231.990000,2.851132
5234.990000,2.838839
5237.989000,2.842266
5240.990000,2.839903
5243.990000,2.828433
5246.990000,2.836888
5249.990000,2.849044
5252.989000,2.832326
5255.989000,2.839135
5258.988000,2.855870
5261.989000,2.838431
5264.989000,2.854772
5267.987000,2.841501
5270.987000,2.858893
5273.987000,2.840838
5276.987000,2.841950
5279.988000,2.867480
5282.988000,2.867014
5285.986000,2.869064
5288.986000,2.863179
5291.986000,2.846719
5294.986000,2.868897
5297.986000,2.869139
5300.985000,2.869931
5303.985000,2.877454
5306.985000,2.853719
5309.985000,2.872035
5312.985000,2.881020
5315.983000,2.861313
5318.984000,2.877127
5321.984000,2.862102
5324.984000,2.878868
5327.984000,2.870084
5330.984000,2.873123
5333.982000,2.888036
5336.982000,2.864274
5339.983000,2.880347
5342.983000,2.871389
5345.983000,2.871090
5348.981000,2.888206
5351.981000,2.866688
5354.981000,2.876590
5357.982000,2.890681
5360.982000,2.886931
5363.980000,2.881666
5366.980000,2.874180
5369.980000,2.870665
5372.980000,2.872980
5375.979000,2.892343
5378.980000,2.894196
5381.980000,2.897643
5384.980000,2.899169
5387.979000,2.882322
5390.979000,2.881536
5393.979000,2.892160
5396.978000,2.870373
5399.979000,2.869128
5402.979000,2.870835
5405.977000,2.880068
5408.977000,2.894305
5411.977000,2.875319
5414.977000,2.877960
5417.978000,2.892744
5420.976000,2.874673
5423.976000,2.871515
5426.976000,2.876961
5429.976000,2.869519
5432.976000,2.872103
5435.975000,2.892075
5438.975000,2.871841
5441.976000,2.869125
5444.975000,2.869421
5447.975000,2.873024
5450.975000,2.866926
5453.973000,2.874384
5456.974000,2.885011
5459.974000,2.864543
5462.974000,2.886690
5465.974000,2.873072
5468.972000,2.869006
5471.972000,2.869152
5474.973000,2.866664
5477.973000,2.858563
5480.973000,2.867293
5483.971000,2.880608
5486.972000,2.871202
5489.972000,2.865018
5492.970000,2.869594
5495.971000,2.870328
5498.971000,2.869275
5501.971000,2.870053
5504.971000,2.872103
5507.969000,2.877831
5510.969000,2.861010
5513.970000,2.861483
5516.970000,2.872592
5519.970000,2.862690
5522.970000,2.858196
5525.968000,2.859824
5528.968000,2.853831
5531.968000,2.849034
5534.968000,2.858145
5537.968000,2.858971
5540.968000,2.849214
5543.968000,2.853674
5546.966000,2.874027
5549.966000,2.850319
5552.968000,2.862972
5555.966000,2.860382
5558.966000,2.847674
5561.967000,2.846804
5564.965000,2.843962
5567.965000,2.851461
5570.965000,2.861830
5573.966000,2.850384
5576.966000,2.838985
5579.964000,2.839091
5582.964000,2.838554
5585.964000,2.832594
5588.964000,2.836867
5591.965000,2.845502
5594.963000,2.833516
5597.963000,2.836483
5600.963000,2.838550
5603.963000,2.838540
5606.963000,2.848449
5609.963000,2.841168
5612.962000,2.831007
5615.962000,2.851274
5618.962000,2.829423
5621.962000,2.825564
5624.962000,2.826088
5627.960000,2.825608
5630.960000,2.822444
5633.961000,2.828916
5636.961000,2.832523
5639.961000,2.835562
5642.959000,2.817399
5645.959000,2.816848
5648.959000,2.819279
5651.960000,2.839890
5654.960000,2.811062
5657.960000,2.812541
5660.958000,2.826686
5663.958000,2.833193
5666.958000,2.831571
5669.958000,2.817457
5672.959000,2.830188
5675.957000,2.832591
5678.957000,2.820305
5681.958000,2.813483
5684.956000,2.823994
5687.956000,2.807353
5690.957000,2.808451
5693.957000,2.806544
5696.957000,2.805844
5699.955000,2.805739
5702.955000,2.822352
5705.955000,2.827876
5708.955000,2.808819
5711.956000,2.806833
5714.954000,2.825921
5717.954000,2.806510
5720.954000,2.829467
5723.954000,2.812993
5726.954000,2.801442
5729.955000,2.814625
5732.953000,2.820598
5735.953000,2.814173
5738.953000,2.816379
5741.953000,2.817440
5744.953000,2.818225
5747.951000,2.799688
5750.952000,2.807619
5753.952000,2.815322
5756.952000,2.827271
5759.952000,2.805728
5762.950000,2.811355
5765.951000,2.827536
5768.952000,2.814618
5771.950000,2.808567
5774.950000,2.815617
5777.950000,2.815250
5780.950000,2.808312
5783.950000,2.818337
5786.948000,2.822447
5789.949000,2.806826
5792.949000,2.831309
5795.949000,2.807958
5798.949000,2.809611
5801.949000,2.806554
5804.947000,2.820703
5807.948000,2.835790
5810.948000,2.809770
5813.948000,2.816369
5816.948000,2.827196
5819.946000,2.809910
5822.946000,2.829249
5825.946000,2.832948
5828.947000,2.812170
5831.947000,2.833570
5834.945000,2.813404
5837.945000,2.817331
5840.945000,2.831704
5843.945000,2.830116
5846.946000,2.827828
5849.946000,2.818279
5852.944000,2.832013
5855.944000,2.816253
5858.944000,2.835756
5861.944000,2.811076
5864.944000,2.814577
5867.944000,2.815451
5870.944000,2.836099
5873.944000,2.819979
5876.942000,2.834083
5879.942000,2.832880
5882.942000,2.819758
5885.943000,2.837374
5888.943000,2.821104
5891.941000,2.838312
5894.941000,2.825860
5897.941000,2.822396
5900.941000,2.839495
5903.941000,2.821332
5906.940000,2.838373
5909.940000,2.825819
5912.940000,2.844458
5915.940000,2.820360
5918.940000,2.819099
5921.939000,2.817905
5924.940000,2.829266
5927.940000,2.834131
5930.938000,2.824748
5933.938000,2.843592
5936.939000,2.833386
5939.937000,2.831201
5942.937000,2.851713
5945.938000,2.850312
5948.938000,2.854980
5951.938000,2.831371
5954.936000,2.831734
5957.936000,2.847229
5960.936000,2.839927
5963.937000,2.829576
5966.937000,2.853249
5969.937000,2.829956
5972.935000,2.838248
5975.935000,2.853018
5978.935000,2.830833
5981.935000,2.848891
5984.936000,2.847083
5987.934000,2.848687
5990.934000,2.856618
5993.934000,2.846012
5996.934000,2.831326
5999.934000,2.838152
6002.933000,2.842766
6005.933000,2.863067
6008.933000,2.840641
6011.932000,2.847929
6014.932000,2.863512
6017.931000,2.837918
6020.931000,2.851376
6023.932000,2.859525
6026.932000,2.837024
6029.932000,2.859025
6032.932000,2.838557
6035.930000,2.845019
6038.930000,2.840141
6041.931000,2.838064
6044.931000,2.835644
6047.931000,2.838792
6050.929000,2.848524
6053.929000,2.868741
6056.929000,2.846811
6059.929000,2.842456
6062.930000,2.865464
6065.930000,2.849972
6068.928000,2.841205
6071.928000,2.855483
6074.928000,2.868595
6077.928000,2.863013
6080.928000,2.863679
6083.928000,2.861990
6086.928000,2.853171
6089.928000,2.837014
6092.927000,2.832985
6095.927000,2.848273
6098.925000,2.859018
6101.926000,2.843680
6104.926000,2.841226
6107.926000,2.852281
6110.926000,2.838394
6113.926000,2.853657
6116.924000,2.835328
6119.925000,2.848283
6122.925000,2.838441
6125.925000,2.849517
6128.925000,2.831292
6131.923000,2.835559
6134.923000,2.848021
6137.923000,2.832462
6140.924000,2.853185
6143.924000,2.829219
6146.922000,2.840114
6149.923000,2.854222
6152.923000,2.847270
6155.921000,2.833233
6158.923000,2.830942
6161.923000,2.835134
6164.921000,2.836171
6167.921000,2.828852
6170.921000,2.826305
6173.921000,2.830116
6176.921000,2.840937
6179.920000,2.833482
6182.920000,2.828185
6185.920000,2.828345
6188.920000,2.822246
6191.919000,2.824844
6194.919000,2.837272
6197.920000,2.823072
6200.920000,2.828342
6203.918000,2.821264
6206.918000,2.817280
6209.918000,2.815699
6212.918000,2.814159
6215.918000,2.819299
6218.917000,2.827716
6221.917000,2.828049
6224.917000,2.828376
6227.917000,2.822760
6230.917000,2.811912
6233.915000,2.813897
6236.916000,2.822760
6239.916000,2.821495
6242.916000,2.813721
6245.916000,2.838567
6248.916000,2.818963
6251.914000,2.812786
6254.914000,2.820992
6257.915000,2.822049
6260.915000,2.822257
6263.915000,2.823225
6266.913000,2.812555
6269.913000,2.823491
6272.913000,2.820173
6275.914000,2.831996
6278.914000,2.810596
6281.912000,2.822566
6284.912000,2.830544
6287.912000,2.808105
6290.912000,2.822416
6293.912000,2.820316
6296.913000,2.817909
6299.911000,2.816828
6302.911000,2.808570
6305.911000,2.808006
6308.911000,2.825989
6311.911000,2.828767
6314.911000,2.810943
6317.911000,2.818667
6320.911000,2.824480
6323.909000,2.815692
6326.909000,2.818425
6329.909000,2.818789
6332.909000,2.808859
6335.910000,2.807391
6338.909000,2.803087
6341.908000,2.801374
6344.909000,2.807670
6347.907000,2.814730
6350.907000,2.819143
6353.908000,2.830697
6356.908000,2.827601
6359.908000,2.809417
6362.908000,2.807622
6365.906000,2.828325
6368.906000,2.805759
6371.906000,2.821060
6374.907000,2.833553
6377.905000,2.833332
6380.905000,2.828444
6383.905000,2.834117
6386.905000,2.806592
6389.905000,2.817555
6392.906000,2.825496
6395.904000,2.808856
6398.904000,2.826217
6401.904000,2.821040
6404.904000,2.813156
6407.903000,2.830436
6410.903000,2.811766
6413.904000,2.824728
6416.904000,2.838560
6419.902000,2.834447
6422.902000,2.808264
6425.902000,2.819812
6428.902000,2.825391
6431.903000,2.819268
6434.901000,2.829253
6437.901000,2.831218
6440.901000,2.813867
6443.901000,2.833016
6446.901000,2.823739
6449.899000,2.822512
6452.900000,2.824412
6455.900000,2.814900
6458.900000,2.834484
6461.899000,2.834097
6464.899000,2.816076
6467.899000,2.835083
6470.900000,2.810705
6473.898000,2.832482
6476.898000,2.841079
6479.898000,2.839087
6482.898000,2.837857
6485.898000,2.837258
6488.898000,2.840906
6491.897000,2.835912
6494.897000,2.816977
6497.897000,2.837938
6500.897000,2.820088
6503.897000,2.826251
6506.895000,2.845485
6509.896000,2.828386
6512.896000,2.822093
6515.896000,2.841253
6518.896000,2.822964
6521.894000,2.833298
6524.894000,2.850170
6527.894000,2.828964
6530.895000,2.841246
6533.895000,2.835321
6536.895000,2.823647
6539.893000,2.840216
6542.894000,2.845458
6545.892000,2.827652
6548.893000,2.837568
6551.893000,2.851795
6554.893000,2.831646
6557.893000,2.852692
6560.893000,2.836303
6563.891000,2.836558
6566.891000,2.851414
6569.892000,2.856452
6572.891000,2.856547
6575.891000,2.833424
6578.891000,2.839978
6581.891000,2.857285
6584.889000,2.836715
6587.890000,2.831068
6590.890000,2.847260
6593.890000,2.853953
6596.890000,2.847940
6599.890000,2.862928
6602.888000,2.838605
6605.888000,2.846668
6608.889000,2.864729
6611.889000,2.861813
6614.889000,2.842358
6617.887000,2.862574
6620.887000,2.871960
6623.887000,2.850717
6626.888000,2.871039
6629.888000,2.855187
6632.888000,2.854851
6635.886000,2.869601
6638.886000,2.855044
6641.886000,2.878127
6644.886000,2.871066
6647.887000,2.869186
6650.885000,2.875720
6653.885000,2.878304
6656.885000,2.861299
6659.885000,2.879368
6662.885000,2.860150
6665.884000,2.862533
6668.884000,2.885660
6671.884000,2.864689
6674.884000,2.884351
6677.884000,2.871137
6680.884000,2.868292
6683.882000,2.884552
6686.883000,2.868173
6689.883000,2.872521
6692.883000,2.873939
6695.883000,2.886500
6698.881000,2.875812
6701.881000,2.883396
6704.882000,2.887917
6707.882000,2.871171
6710.882000,2.891871
6713.880000,2.880251
6716.880000,2.870719
6719.880000,2.879483
6722.880000,2.893251
6725.881000,2.874377
6728.879000,2.882271
6731.879000,2.900754
6734.879000,2.886109
6737.879000,2.872327
6740.879000,2.895593
6743.880000,2.891028
6746.878000,2.872609
6749.878000,2.879048
6752.878000,2.879419
6755.878000,2.891725
6758.878000,2.880207
6761.876000,2.880435
6764.877000,2.896946
6767.877000,2.901416
6770.877000,2.899669
6773.877000,2.900784
6776.877000,2.871426
6779.875000,2.897660
6782.876000,2.898289
6785.876000,2.884157
6788.876000,2.871851
6791.876000,2.881713
6794.874000,2.885755
6797.874000,2.895019
6800.874000,2.882896
6803.875000,2.873092
6806.875000,2.887740
6809.873000,2.889855
6812.873000,2.871440
6815.873000,2.870910
6818.873000,2.884096
6821.873000,2.883848
6824.873000,2.868017
6827.873000,2.871069
6830.873000,2.888329
6833.872000,2.876141
6836.872000,2.866065
6839.872000,2.866283
6842.871000,2.887434
6845.871000,2.865178
6848.871000,2.860507
6851.871000,2.869111
6854.871000,2.869013
6857.869000,2.861867
6860.870000,2.859093
6863.870000,2.868901
6866.870000,2.865447
6869.870000,2.859974
6872.868000,2.879310
6875.868000,2.857543
6878.868000,2.872701
6881.869000,2.855432
6884.869000,2.873232
6887.869000,2.858298
6890.867000,2.859488
6893.867000,2.861068
6896.867000,2.849055
6899.868000,2.857115
6902.868000,2.860133
6905.866000,2.864199
6908.866000,2.867799
6911.866000,2.846175
6914.866000,2.853940
6917.866000,2.861021
6920.865000,2.841273
6923.865000,2.837836
6926.865000,2.861476
6929.865000,2.835627
6932.864000,2.842075
6935.864000,2.841712
6938.864000,2.836038
6941.865000,2.830793
6944.864000,2.830555
6947.864000,2.843156
6950.864000,2.841321
6953.862000,2.849547
6956.862000,2.831462
6959.863000,2.828345
6962.863000,2.827849
6965.863000,2.827410
6968.861000,2.828304
6971.861000,2.823610
6974.861000,2.822420
6977.861000,2.831524
6980.862000,2.836565
6983.862000,2.823919
6986.860000,2.840253
6989.860000,2.821611
6992.860000,2.826805
6995.860000,2.845883
6998.861000,2.820336
7001.859000,2.818439
7004.859000,2.818262
7007.859000,2.816783
7010.859000,2.826642
7013.859000,2.828365
7016.858000,2.837632
7019.858000,2.830670
7022.858000,2.816134
7025.858000,2.817776
7028.858000,2.816236
7031.856000,2.821774
7034.856000,2.828348
7037.857000,2.836137
7040.857000,2.836317
7043.857000,2.817508
7046.857000,2.821053
7049.855000,2.816515
7052.856000,2.828682
7055.856000,2.830313
7058.855000,2.821845
7061.856000,2.840437
7064.854000,2.838105
7067.854000,2.817287
7070.855000,2.838227
7073.853000,2.817168
7076.855000,2.825439
7079.855000,2.831585
7082.853000,2.817657
7085.853000,2.831639
7088.853000,2.829355
7091.852000,2.825513
7094.852000,2.842249
7097.853000,2.819860
7100.853000,2.840716
7103.853000,2.822076
7106.851000,2.833053
7109.851000,2.846508
7112.851000,2.818956
7115.852000,2.818942
7118.852000,2.837643
7121.850000,2.851108
7124.850000,2.821872
7127.850000,2.832210
7130.850000,2.848980
7133.850000,2.833580
7136.849000,2.839573
7139.849000,2.831629
7142.849000,2.830504
7145.849000,2.848317
7148.849000,2.851614
7151.849000,2.829518
7154.848000,2.820808
7157.848000,2.829511
7160.848000,2.845699
7163.848000,2.822284
7166.848000,2.828539
7169.846000,2.841001
7172.846000,2.824480
7175.847000,2.835637
7178.847000,2.837649
7181.847000,2.825228
7184.845000,2.836905
7187.845000,2.820815
7190.845000,2.834882
7193.846000,2.835032
7196.846000,2.822597
7199.846000,2.828359
7202.845000,2.839488
7205.844000,2.848439
